LabVIEW Measurement	
Writer_Version	2
Reader_Version	2
Separator	Tab
Decimal_Separator	.
Multi_Headings	Yes
X_Columns	No
Time_Pref	Relative
Operator	stud40
Date	2023/03/21
Time	18:29:53.72614288330078125
***End_of_Header***	
	
Channels	2		
Samples	1000	1000	
Date	2023/03/21	2023/03/21	
Time	18:29:53.72614288330078125	18:29:53.72614288330078125	
X_Dimension	Time	Time	
X0	0.0000000000000000E+0	0.0000000000000000E+0	
Delta_X	1.000000	1.000000	
***End_of_Header***			
X_Value	Untitled	Untitled 1	Comment
	0.000214	0.000000
	0.000198	0.100000
	0.000204	0.200000
	6.924937E-5	0.300000
	5.279766E-5	0.400000
	7.583004E-5	0.500000
	2.647495E-5	0.600000
	0.000171	0.700000
	0.000122	0.800000
	5.937835E-5	0.900000
	0.000142	1.000000
	9.228172E-5	1.100000
	0.000234	1.200000
	0.000237	1.300000
	6.595902E-5	1.400000
	0.000263	1.500000
	0.000135	1.600000
	0.000122	1.700000
	0.000138	1.800000
	0.000188	1.900000
	0.000148	2.000000
	0.000119	2.100000
	0.000148	2.200000
	0.000112	2.300000
	0.000125	2.400000
	0.000122	2.500000
	6.924934E-5	2.600000
	0.000155	2.700000
	0.000191	2.800000
	0.000273	2.900000
	0.000175	3.000000
	0.000201	3.100000
	0.000240	3.200000
	0.000175	3.300000
	0.000165	3.400000
	0.000152	3.500000
	0.000152	3.600000
	0.000122	3.700000
	0.000230	3.800000
	0.000250	3.900000
	0.000250	4.000000
	0.000161	4.100000
	0.000211	4.200000
	0.000145	4.300000
	0.000168	4.400000
	0.000234	4.500000
	0.000138	4.600000
	0.000217	4.700000
	0.000135	4.800000
	0.000109	4.900000
	0.000148	5.000000
	0.000128	5.100000
	0.000188	5.200000
	0.000109	5.300000
	0.000198	5.400000
	0.000254	5.500000
	0.000224	5.600000
	0.000175	5.700000
	0.000191	5.800000
	0.000240	5.900000
	0.000198	6.000000
	0.000237	6.100000
	0.000148	6.200000
	0.000135	6.300000
	0.000184	6.400000
	0.000217	6.500000
	0.000112	6.600000
	0.000191	6.700000
	0.000191	6.800000
	0.000145	6.900000
	0.000240	7.000000
	0.000168	7.100000
	0.000132	7.200000
	0.000247	7.300000
	0.000178	7.400000
	0.000290	7.500000
	0.000152	7.600000
	0.000191	7.700000
	0.000181	7.800000
	0.000194	7.900000
	0.000224	8.000000
	0.000257	8.100000
	0.000178	8.200000
	0.000184	8.300000
	0.000191	8.400000
	0.000280	8.500000
	0.000181	8.600000
	0.000211	8.700000
	0.000224	8.800000
	0.000181	8.900000
	9.557204E-5	9.000000
	0.000161	9.100000
	0.000191	9.200000
	0.000142	9.300000
	0.000175	9.400000
	0.000201	9.500000
	0.000158	9.600000
	0.000165	9.700000
	0.000184	9.800000
	0.000234	9.900000
	0.000332	10.000000
	0.000181	10.100000
	0.000201	10.200000
	0.000283	10.300000
	0.000165	10.400000
	0.000260	10.500000
	0.000198	10.600000
	0.000171	10.700000
	0.000207	10.800000
	0.000125	10.900000
	0.000161	11.000000
	0.000175	11.100000
	0.000152	11.200000
	0.000207	11.300000
	0.000175	11.400000
	0.000155	11.500000
	0.000188	11.600000
	0.000201	11.700000
	0.000230	11.800000
	0.000168	11.900000
	0.000128	12.000000
	0.000240	12.100000
	0.000135	12.200000
	0.000112	12.300000
	0.000198	12.400000
	0.000178	12.500000
	0.000211	12.600000
	0.000115	12.700000
	0.000135	12.800000
	0.000250	12.900000
	0.000188	13.000000
	0.000194	13.100000
	0.000181	13.200000
	0.000165	13.300000
	0.000148	13.400000
	0.000198	13.500000
	0.000138	13.600000
	0.000204	13.700000
	0.000155	13.800000
	0.000109	13.900000
	0.000175	14.000000
	0.000145	14.100000
	0.000119	14.200000
	7.912034E-5	14.300000
	0.000102	14.400000
	0.000188	14.500000
	0.000119	14.600000
	0.000132	14.700000
	0.000142	14.800000
	0.000217	14.900000
	0.000165	15.000000
	0.000119	15.100000
	0.000125	15.200000
	0.000188	15.300000
	0.000148	15.400000
	0.000184	15.500000
	0.000105	15.600000
	0.000125	15.700000
	0.000145	15.800000
	0.000102	15.900000
	0.000115	16.000000
	0.000148	16.100000
	0.000132	16.200000
	0.000145	16.300000
	0.000178	16.400000
	0.000201	16.500000
	0.000217	16.600000
	0.000158	16.700000
	0.000198	16.800000
	0.000125	16.900000
	0.000247	17.000000
	0.000191	17.100000
	0.000122	17.200000
	0.000119	17.300000
	0.000224	17.400000
	0.000234	17.500000
	0.000148	17.600000
	0.000105	17.700000
	0.000247	17.800000
	0.000191	17.900000
	0.000178	18.000000
	0.000178	18.100000
	0.000207	18.200000
	0.000204	18.300000
	0.000207	18.400000
	0.000227	18.500000
	0.000181	18.600000
	0.000201	18.700000
	0.000224	18.800000
	0.000165	18.900000
	0.000198	19.000000
	0.000240	19.100000
	0.000194	19.200000
	0.000267	19.300000
	0.000135	19.400000
	0.000188	19.500000
	0.000211	19.600000
	0.000115	19.700000
	0.000168	19.800000
	0.000142	19.900000
	0.000204	20.000000
	0.000198	20.100000
	0.000211	20.200000
	0.000184	20.300000
	0.000148	20.400000
	0.000201	20.500000
	0.000204	20.600000
	0.000273	20.700000
	0.000224	20.800000
	0.000201	20.900000
	0.000214	21.000000
	0.000201	21.100000
	0.000194	21.200000
	0.000194	21.300000
	0.000421	21.400000
	0.000165	21.500000
	0.000263	21.600000
	0.000168	21.700000
	0.000217	21.800000
	0.000198	21.900000
	0.000155	22.000000
	0.000168	22.100000
	0.000112	22.200000
	0.000142	22.300000
	0.000142	22.400000
	0.000184	22.500000
	0.000211	22.600000
	0.000247	22.700000
	0.000227	22.800000
	0.000240	22.900000
	0.000296	23.000000
	0.000158	23.100000
	0.000184	23.200000
	0.000178	23.300000
	0.000237	23.400000
	0.000230	23.500000
	0.000171	23.600000
	0.000175	23.700000
	0.000250	23.800000
	0.000224	23.900000
	0.000211	24.000000
	0.000161	24.100000
	0.000158	24.200000
	0.000168	24.300000
	0.000171	24.400000
	0.000132	24.500000
	0.000145	24.600000
	0.000217	24.700000
	0.000191	24.800000
	0.000201	24.900000
	0.000135	25.000000
	0.000217	25.100000
	0.000158	25.200000
	0.000211	25.300000
	0.000188	25.400000
	0.000135	25.500000
	0.000201	25.600000
	0.000204	25.700000
	0.000237	25.800000
	0.000214	25.900000
	0.000135	26.000000
	0.000184	26.100000
	0.000260	26.200000
	0.000244	26.300000
	0.000198	26.400000
	0.000191	26.500000
	0.000214	26.600000
	0.000244	26.700000
	0.000181	26.800000
	0.000224	26.900000
	0.000267	27.000000
	0.000356	27.100000
	0.000250	27.200000
	0.000135	27.300000
	0.000277	27.400000
	0.000158	27.500000
	0.000165	27.600000
	-4.262230E-5	27.700000
	-0.000154	27.800000
	0.000122	27.900000
	9.557187E-5	28.000000
	7.582984E-5	28.100000
	7.912017E-5	28.200000
	0.000145	28.300000
	0.000184	28.400000
	0.000234	28.500000
	0.000224	28.600000
	0.000428	28.700000
	0.000191	28.800000
	0.000138	28.900000
	0.000168	29.000000
	0.000194	29.100000
	0.000267	29.200000
	0.000221	29.300000
	0.000165	29.400000
	0.000191	29.500000
	0.000273	29.600000
	0.000201	29.700000
	0.000224	29.800000
	0.000342	29.900000
	0.000168	30.000000
	0.000204	30.100000
	0.000230	30.200000
	0.000184	30.300000
	0.000184	30.400000
	0.000158	30.500000
	8.570066E-5	30.600000
	0.000191	30.700000
	0.000224	30.800000
	0.000234	30.900000
	0.000221	31.000000
	0.000240	31.100000
	0.000171	31.200000
	0.000244	31.300000
	0.000211	31.400000
	0.000194	31.500000
	0.000191	31.600000
	0.000257	31.700000
	0.000296	31.800000
	0.000277	31.900000
	0.000257	32.000000
	0.000227	32.100000
	0.000217	32.200000
	0.000227	32.300000
	0.000280	32.400000
	0.000323	32.500000
	0.000250	32.600000
	0.000263	32.700000
	0.000227	32.800000
	0.000194	32.900000
	0.000214	33.000000
	0.000224	33.100000
	0.000316	33.200000
	0.000207	33.300000
	0.000227	33.400000
	0.000184	33.500000
	0.000191	33.600000
	0.000204	33.700000
	0.000207	33.800000
	0.000230	33.900000
	0.000161	34.000000
	0.000221	34.100000
	0.000207	34.200000
	0.000158	34.300000
	0.000161	34.400000
	0.000201	34.500000
	0.000247	34.600000
	0.000254	34.700000
	0.000224	34.800000
	0.000257	34.900000
	0.000198	35.000000
	0.000263	35.100000
	0.000237	35.200000
	0.000194	35.300000
	0.000188	35.400000
	0.000211	35.500000
	0.000254	35.600000
	0.000188	35.700000
	0.000155	35.800000
	0.000198	35.900000
	0.000152	36.000000
	0.000230	36.100000
	0.000211	36.200000
	0.000211	36.300000
	0.000152	36.400000
	0.000198	36.500000
	0.000165	36.600000
	0.000198	36.700000
	0.000112	36.800000
	0.000161	36.900000
	0.000240	37.000000
	0.000217	37.100000
	0.000263	37.200000
	0.000230	37.300000
	0.000260	37.400000
	0.000240	37.500000
	0.000244	37.600000
	0.000293	37.700000
	0.000263	37.800000
	0.000270	37.900000
	0.000188	38.000000
	0.000250	38.100000
	0.000224	38.200000
	0.000175	38.300000
	0.000217	38.400000
	0.000188	38.500000
	0.000244	38.600000
	0.000178	38.700000
	0.000214	38.800000
	0.000244	38.900000
	0.000306	39.000000
	0.000227	39.100000
	0.000171	39.200000
	0.000201	39.300000
	0.000181	39.400000
	0.000207	39.500000
	0.000152	39.600000
	0.000171	39.700000
	0.000240	39.800000
	0.000145	39.900000
	0.000260	40.000000
	0.000142	40.100000
	0.000234	40.200000
	0.000234	40.300000
	0.000191	40.400000
	0.000247	40.500000
	0.000178	40.600000
	0.000204	40.700000
	0.000214	40.800000
	0.000346	40.900000
	0.000260	41.000000
	0.000224	41.100000
	0.000277	41.200000
	0.000244	41.300000
	0.000230	41.400000
	0.000286	41.500000
	0.000244	41.600000
	0.000286	41.700000
	0.000237	41.800000
	0.000230	41.900000
	0.000221	42.000000
	0.000184	42.100000
	0.000250	42.200000
	0.000224	42.300000
	0.000227	42.400000
	0.000181	42.500000
	0.000158	42.600000
	0.000201	42.700000
	0.000293	42.800000
	0.000270	42.900000
	0.000175	43.000000
	0.000254	43.100000
	0.000250	43.200000
	0.000224	43.300000
	0.000230	43.400000
	0.000250	43.500000
	0.000230	43.600000
	0.000168	43.700000
	0.000135	43.800000
	0.000217	43.900000
	0.000204	44.000000
	0.000194	44.100000
	0.000247	44.200000
	0.000227	44.300000
	0.000165	44.400000
	0.000230	44.500000
	0.000184	44.600000
	0.000247	44.700000
	0.000221	44.800000
	0.000201	44.900000
	0.000254	45.000000
	0.000198	45.100000
	0.000263	45.200000
	0.000306	45.300000
	0.000277	45.400000
	0.000247	45.500000
	0.000280	45.600000
	0.000211	45.700000
	0.000184	45.800000
	0.000211	45.900000
	0.000244	46.000000
	0.000227	46.100000
	0.000221	46.200000
	0.000191	46.300000
	0.000257	46.400000
	0.000217	46.500000
	0.000273	46.600000
	0.000158	46.700000
	0.000254	46.800000
	0.000217	46.900000
	0.000227	47.000000
	0.000191	47.100000
	0.000244	47.200000
	0.000260	47.300000
	0.000260	47.400000
	0.000175	47.500000
	0.000234	47.600000
	0.000323	47.700000
	0.000224	47.800000
	0.000181	47.900000
	0.000158	48.000000
	0.000191	48.100000
	0.000184	48.200000
	0.000319	48.300000
	0.000326	48.400000
	0.000237	48.500000
	0.000293	48.600000
	0.000230	48.700000
	0.000194	48.800000
	0.000204	48.900000
	0.000181	49.000000
	0.000240	49.100000
	0.000257	49.200000
	0.000290	49.300000
	0.000178	49.400000
	0.000237	49.500000
	0.000352	49.600000
	0.000260	49.700000
	0.000296	49.800000
	0.000290	49.900000
	0.000283	50.000000
	0.000263	50.100000
	0.000273	50.200000
	0.000240	50.300000
	0.000280	50.400000
	0.000155	50.500000
	0.000290	50.600000
	0.000224	50.700000
	0.000283	50.800000
	0.000188	50.900000
	0.000283	51.000000
	0.000254	51.100000
	0.000280	51.200000
	0.000191	51.300000
	0.000217	51.400000
	0.000227	51.500000
	0.000158	51.600000
	0.000152	51.700000
	0.000227	51.800000
	0.000198	51.900000
	0.000224	52.000000
	0.000224	52.100000
	0.000207	52.200000
	0.000277	52.300000
	0.000204	52.400000
	0.000211	52.500000
	0.000217	52.600000
	0.000171	52.700000
	0.000217	52.800000
	0.000234	52.900000
	0.000191	53.000000
	0.000316	53.100000
	0.000191	53.200000
	0.000224	53.300000
	0.000227	53.400000
	0.000250	53.500000
	0.000188	53.600000
	0.000204	53.700000
	0.000152	53.800000
	0.000181	53.900000
	0.000270	54.000000
	0.000217	54.100000
	0.000234	54.200000
	0.000280	54.300000
	0.000221	54.400000
	0.000145	54.500000
	0.000188	54.600000
	0.000257	54.700000
	0.000204	54.800000
	0.000178	54.900000
	0.000250	55.000000
	0.000201	55.100000
	0.000300	55.200000
	0.000244	55.300000
	0.000198	55.400000
	0.000155	55.500000
	0.000155	55.600000
	0.000181	55.700000
	0.000152	55.800000
	0.000188	55.900000
	0.000198	56.000000
	0.000204	56.100000
	0.000191	56.200000
	0.000184	56.300000
	0.000165	56.400000
	0.000260	56.500000
	0.000230	56.600000
	0.000240	56.700000
	0.000191	56.800000
	0.000194	56.900000
	0.000155	57.000000
	0.000168	57.100000
	0.000148	57.200000
	0.000178	57.300000
	0.000161	57.400000
	0.000217	57.500000
	0.000184	57.600000
	0.000254	57.700000
	0.000155	57.800000
	0.000214	57.900000
	0.000145	58.000000
	0.000115	58.100000
	0.000168	58.200000
	0.000138	58.300000
	0.000138	58.400000
	0.000158	58.500000
	0.000142	58.600000
	0.000155	58.700000
	0.000155	58.800000
	0.000211	58.900000
	0.000175	59.000000
	0.000237	59.100000
	0.000122	59.200000
	0.000158	59.300000
	0.000165	59.400000
	0.000207	59.500000
	0.000191	59.600000
	0.000198	59.700000
	0.000168	59.800000
	0.000198	59.900000
	0.000227	60.000000
	0.000204	60.100000
	0.000211	60.200000
	0.000184	60.300000
	0.000207	60.400000
	0.000204	60.500000
	0.000132	60.600000
	0.000171	60.700000
	0.000227	60.800000
	0.000198	60.900000
	0.000175	61.000000
	0.000221	61.100000
	0.000267	61.200000
	0.000161	61.300000
	8.570055E-5	61.400000
	0.000237	61.500000
	0.000240	61.600000
	0.000191	61.700000
	0.000188	61.800000
	0.000158	61.900000
	0.000188	62.000000
	0.000142	62.100000
	0.000191	62.200000
	0.000175	62.300000
	0.000204	62.400000
	0.000178	62.500000
	0.000207	62.600000
	0.000198	62.700000
	0.000234	62.800000
	0.000178	62.900000
	0.000132	63.000000
	0.000171	63.100000
	0.000191	63.200000
	0.000112	63.300000
	0.000184	63.400000
	0.000240	63.500000
	0.000161	63.600000
	0.000178	63.700000
	0.000214	63.800000
	0.000214	63.900000
	0.000230	64.000000
	0.000211	64.100000
	0.000191	64.200000
	0.000194	64.300000
	0.000178	64.400000
	0.000161	64.500000
	0.000128	64.600000
	0.000155	64.700000
	0.000145	64.800000
	0.000158	64.900000
	0.000184	65.000000
	0.000155	65.100000
	0.000188	65.200000
	0.000237	65.300000
	0.000257	65.400000
	0.000230	65.500000
	0.000184	65.600000
	0.000178	65.700000
	8.899088E-5	65.800000
	0.000165	65.900000
	0.000148	66.000000
	0.000201	66.100000
	0.000184	66.200000
	0.000204	66.300000
	0.000247	66.400000
	0.000214	66.500000
	0.000135	66.600000
	0.000198	66.700000
	0.000142	66.800000
	0.000155	66.900000
	0.000184	67.000000
	0.000198	67.100000
	0.000263	67.200000
	0.000188	67.300000
	0.000142	67.400000
	0.000181	67.500000
	0.000227	67.600000
	0.000211	67.700000
	0.000198	67.800000
	0.000145	67.900000
	0.000214	68.000000
	0.000188	68.100000
	0.000188	68.200000
	0.000184	68.300000
	0.000221	68.400000
	0.000155	68.500000
	0.000234	68.600000
	0.000109	68.700000
	0.000171	68.800000
	0.000184	68.900000
	0.000122	69.000000
	0.000230	69.100000
	0.000204	69.200000
	0.000234	69.300000
	0.000184	69.400000
	0.000181	69.500000
	0.000254	69.600000
	0.000155	69.700000
	0.000168	69.800000
	0.000178	69.900000
	0.000152	70.000000
	0.000198	70.100000
	0.000224	70.200000
	0.000158	70.300000
	0.000178	70.400000
	0.000224	70.500000
	0.000171	70.600000
	0.000204	70.700000
	0.000188	70.800000
	0.000171	70.900000
	0.000201	71.000000
	0.000178	71.100000
	0.000184	71.200000
	0.000191	71.300000
	0.000171	71.400000
	0.000224	71.500000
	0.000194	71.600000
	0.000240	71.700000
	0.000155	71.800000
	0.000155	71.900000
	0.000237	72.000000
	0.000201	72.100000
	0.000260	72.200000
	0.000175	72.300000
	0.000188	72.400000
	0.000211	72.500000
	0.000221	72.600000
	0.000158	72.700000
	0.000198	72.800000
	0.000244	72.900000
	0.000230	73.000000
	0.000280	73.100000
	0.000158	73.200000
	0.000204	73.300000
	0.000247	73.400000
	0.000244	73.500000
	0.000175	73.600000
	0.000201	73.700000
	0.000237	73.800000
	0.000119	73.900000
	0.000115	74.000000
	6.924882E-5	74.100000
	0.000158	74.200000
	0.000198	74.300000
	0.000201	74.400000
	0.000214	74.500000
	0.000227	74.600000
	0.000211	74.700000
	0.000201	74.800000
	0.000125	74.900000
	0.000109	75.000000
	0.000221	75.100000
	0.000152	75.200000
	0.000138	75.300000
	0.000158	75.400000
	0.000119	75.500000
	0.000214	75.600000
	0.000119	75.700000
	0.000221	75.800000
	0.000152	75.900000
	0.000198	76.000000
	0.000240	76.100000
	0.000194	76.200000
	0.000204	76.300000
	0.000204	76.400000
	0.000168	76.500000
	0.000211	76.600000
	0.000171	76.700000
	0.000138	76.800000
	0.000155	76.900000
	0.000165	77.000000
	0.000158	77.100000
	0.000168	77.200000
	0.000128	77.300000
	0.000128	77.400000
	0.000158	77.500000
	0.000115	77.600000
	0.000211	77.700000
	0.000138	77.800000
	0.000198	77.900000
	0.000109	78.000000
	0.000125	78.100000
	0.000188	78.200000
	0.000191	78.300000
	0.000105	78.400000
	0.000227	78.500000
	0.000135	78.600000
	0.000175	78.700000
	0.000119	78.800000
	0.000128	78.900000
	0.000178	79.000000
	0.000135	79.100000
	0.000198	79.200000
	0.000109	79.300000
	0.000237	79.400000
	0.000112	79.500000
	0.000148	79.600000
	0.000165	79.700000
	0.000188	79.800000
	9.557151E-5	79.900000
	8.899083E-5	80.000000
	0.000194	80.100000
	7.253913E-5	80.200000
	0.000178	80.300000
	0.000145	80.400000
	0.000145	80.500000
	0.000145	80.600000
	9.886184E-5	80.700000
	0.000178	80.800000
	0.000158	80.900000
	0.000188	81.000000
	0.000181	81.100000
	0.000175	81.200000
	0.000224	81.300000
	0.000135	81.400000
	0.000128	81.500000
	0.000214	81.600000
	0.000191	81.700000
	0.000119	81.800000
	0.000178	81.900000
	0.000132	82.000000
	0.000145	82.100000
	0.000155	82.200000
	0.000191	82.300000
	0.000158	82.400000
	0.000184	82.500000
	0.000198	82.600000
	0.000148	82.700000
	0.000161	82.800000
	0.000152	82.900000
	0.000138	83.000000
	0.000204	83.100000
	0.000171	83.200000
	0.000155	83.300000
	0.000244	83.400000
	0.000155	83.500000
	0.000194	83.600000
	0.000201	83.700000
	0.000142	83.800000
	0.000207	83.900000
	0.000148	84.000000
	0.000152	84.100000
	0.000161	84.200000
	0.000171	84.300000
	0.000181	84.400000
	0.000175	84.500000
	0.000148	84.600000
	0.000122	84.700000
	0.000155	84.800000
	0.000227	84.900000
	0.000148	85.000000
	0.000138	85.100000
	0.000142	85.200000
	0.000171	85.300000
	0.000175	85.400000
	0.000260	85.500000
	0.000227	85.600000
	0.000135	85.700000
	0.000188	85.800000
	0.000217	85.900000
	0.000102	86.000000
	0.000158	86.100000
	0.000132	86.200000
	0.000175	86.300000
	0.000105	86.400000
	0.000198	86.500000
	0.000175	86.600000
	0.000165	86.700000
	0.000158	86.800000
	0.000152	86.900000
	0.000191	87.000000
	0.000188	87.100000
	0.000237	87.200000
	0.000194	87.300000
	0.000204	87.400000
	0.000188	87.500000
	0.000237	87.600000
	0.000198	87.700000
	0.000263	87.800000
	0.000145	87.900000
	0.000155	88.000000
	0.000168	88.100000
	0.000135	88.200000
	0.000171	88.300000
	0.000148	88.400000
	0.000214	88.500000
	0.000135	88.600000
	0.000165	88.700000
	0.000227	88.800000
	0.000181	88.900000
	0.000161	89.000000
	0.000161	89.100000
	9.886183E-5	89.200000
	0.000145	89.300000
	0.000161	89.400000
	0.000217	89.500000
	0.000122	89.600000
	3.963571E-5	89.700000
	0.000168	89.800000
	0.000207	89.900000
	0.000171	90.000000
	0.000244	90.100000
	0.000217	90.200000
	0.000198	90.300000
	0.000181	90.400000
	0.000181	90.500000
	0.000161	90.600000
	0.000184	90.700000
	0.000138	90.800000
	0.000178	90.900000
	0.000165	91.000000
	0.000119	91.100000
	0.000145	91.200000
	0.000201	91.300000
	0.000122	91.400000
	0.000138	91.500000
	0.000158	91.600000
	0.000178	91.700000
	0.000148	91.800000
	0.000250	91.900000
	0.000158	92.000000
	0.000152	92.100000
	0.000152	92.200000
	0.000115	92.300000
	0.000142	92.400000
	0.000148	92.500000
	0.000191	92.600000
	0.000135	92.700000
	0.000122	92.800000
	0.000201	92.900000
	-1.300973E-5	93.000000
	0.000161	93.100000
	0.000184	93.200000
	0.000234	93.300000
	0.000191	93.400000
	0.000148	93.500000
	0.000119	93.600000
	0.000207	93.700000
	0.000217	93.800000
	0.000227	93.900000
	0.000188	94.000000
	0.000194	94.100000
	0.000184	94.200000
	0.000181	94.300000
	0.000161	94.400000
	0.000191	94.500000
	0.000135	94.600000
	0.000191	94.700000
	0.000142	94.800000
	0.000109	94.900000
	0.000184	95.000000
	0.000181	95.100000
	0.000191	95.200000
	0.000168	95.300000
	0.000165	95.400000
	0.000201	95.500000
	0.000132	95.600000
	0.000207	95.700000
	0.000148	95.800000
	0.000105	95.900000
	0.000217	96.000000
	0.000217	96.100000
	0.000122	96.200000
	0.000119	96.300000
	0.000201	96.400000
	0.000161	96.500000
	0.000138	96.600000
	0.000158	96.700000
	0.000188	96.800000
	0.000142	96.900000
	0.000165	97.000000
	9.557146E-5	97.100000
	0.000201	97.200000
	0.000165	97.300000
	0.000158	97.400000
	0.000589	97.500000
	0.000286	97.600000
	0.000221	97.700000
	0.000240	97.800000
	0.000290	97.900000
	0.000247	98.000000
	0.000204	98.100000
	0.000191	98.200000
	0.000230	98.300000
	0.000125	98.400000
	0.000224	98.500000
	0.000207	98.600000
	0.000194	98.700000
	0.000191	98.800000
	0.000194	98.900000
	0.000214	99.000000
	0.000234	99.100000
	0.000234	99.200000
	0.000270	99.300000
	0.000188	99.400000
	9.886108E-5	99.500000
	0.000204	99.600000
	0.000138	99.700000
	0.000224	99.800000
	0.000237	99.900000

