LabVIEW Measurement	
Writer_Version	2
Reader_Version	2
Separator	Tab
Decimal_Separator	.
Multi_Headings	Yes
X_Columns	No
Time_Pref	Relative
Operator	stud40
Date	2023/03/21
Time	18:54:11.4532818794250488282
***End_of_Header***	
	
Channels	4				
Samples	1000	1000	1000	1000	
Date	2023/03/21	2023/03/21	2023/03/21	2023/03/21	
Time	18:54:11.4532818794250488282	18:54:11.4532818794250488282	18:54:11.4532818794250488282	18:54:11.4532818794250488282	
X_Dimension	Time	Time	Time	Time	
X0	0.0000000000000000E+0	0.0000000000000000E+0	0.0000000000000000E+0	0.0000000000000000E+0	
Delta_X	1.000000	1.000000	1.000000	1.000000	
***End_of_Header***					
X_Value	Untitled	Untitled 1	Untitled 2	Untitled 3	Comment
	0.000523	0.000000	0.020814	0.241550
	0.000663	0.100000	-0.046006	0.240888
	0.000525	0.200000	0.058663	0.242242
	0.000592	0.300000	-0.074873	0.242991
	0.000553	0.400000	0.086641	0.242399
	0.000388	0.500000	-0.077581	0.244129
	0.000229	0.600000	0.064072	0.242659
	0.000176	0.700000	-0.044195	0.242404
	0.000163	0.800000	0.022600	0.244070
	0.000193	0.900000	-0.003590	0.243349
	0.000237	1.000000	-0.016221	0.244050
	0.000283	1.100000	0.036128	0.242965
	0.000278	1.200000	-0.058616	0.245857
	0.000367	1.300000	0.073108	0.244633
	0.000347	1.400000	-0.086582	0.245495
	0.000306	1.500000	0.065023	0.244577
	0.000280	1.600000	-0.042401	0.244611
	0.000311	1.700000	0.033393	0.243867
	0.000321	1.800000	-0.009909	0.245739
	0.000214	1.900000	0.001801	0.243390
	0.000224	2.000000	0.020807	0.243445
	0.000219	2.100000	-0.029771	0.245218
	0.000166	2.200000	0.052345	0.243288
	0.000186	2.300000	-0.062238	0.244650
	0.000166	2.400000	0.080320	0.243794
	0.000165	2.500000	-0.079385	0.243164
	0.000237	2.600000	0.058662	0.244513
	0.000267	2.700000	-0.037866	0.242181
	0.000328	2.800000	0.026150	0.243346
	0.000308	2.900000	-0.009891	0.244477
	0.000337	3.000000	0.002712	0.243461
	0.000263	3.100000	0.013537	0.245182
	0.000328	3.200000	-0.033379	0.244542
	0.000258	3.300000	0.056836	0.244897
	0.000313	3.400000	-0.080262	0.242886
	0.000295	3.500000	0.079438	0.244065
	0.000255	3.600000	-0.070359	0.243667
	0.000135	3.700000	0.055077	0.243915
	0.000250	3.800000	-0.044212	0.243521
	0.000354	3.900000	0.021683	0.243858
	0.000344	4.000000	-0.000870	0.242604
	0.000285	4.100000	-0.022544	0.242908
	0.000354	4.200000	0.044230	0.243528
	0.000411	4.300000	-0.063154	0.243336
	0.000344	4.400000	0.083916	0.241619
	0.000288	4.500000	-0.075774	0.242184
	0.000356	4.600000	0.055080	0.243761
	0.000356	4.700000	-0.045992	0.243743
	0.000319	4.800000	0.024378	0.244057
	0.000359	4.900000	-0.014380	0.244790
	0.000426	5.000000	-0.006323	0.243389
	0.000398	5.100000	0.027085	0.243721
	0.000416	5.200000	-0.047827	0.242814
	0.000433	5.300000	0.058696	0.244202
	0.000510	5.400000	-0.079395	0.243726
	0.000290	5.500000	0.089319	0.243720
	0.000433	5.600000	-0.071271	0.244350
	0.000441	5.700000	0.053298	0.242380
	0.000434	5.800000	-0.046864	0.242967
	0.000393	5.900000	0.027976	0.242142
	0.000449	6.000000	-0.009910	0.243438
	0.000467	6.100000	-0.010800	0.246267
	0.000479	6.200000	0.033406	0.247677
	0.000390	6.300000	-0.042378	0.245881
	0.000352	6.400000	0.062259	0.247219
	0.000311	6.500000	-0.082101	0.246097
	0.000356	6.600000	0.087536	0.245788
	0.000397	6.700000	-0.085705	0.246883
	0.000367	6.800000	0.065900	0.246974
	0.000306	6.900000	-0.047814	0.247076
	0.000413	7.000000	0.027085	0.244422
	0.000430	7.100000	-0.003568	0.246540
	0.000392	7.200000	-0.015324	0.246525
	0.000425	7.300000	0.037006	0.246602
	0.000349	7.400000	-0.049611	0.246524
	0.000472	7.500000	0.069507	0.244553
	0.000398	7.600000	-0.085704	0.245694
	0.000477	7.700000	0.071320	0.241802
	0.000428	7.800000	-0.049585	0.240657
	0.000489	7.900000	0.032471	0.240557
	0.000474	8.000000	-0.025249	0.240597
	0.000518	8.100000	0.004492	0.242850
	0.000382	8.200000	0.015368	0.241538
	0.000500	8.300000	-0.031564	0.239734
	0.000574	8.400000	0.049644	0.239494
	0.000541	8.500000	-0.070344	0.241011
	0.000560	8.600000	0.086641	0.239634
	0.000543	8.700000	-0.073091	0.240904
	0.000525	8.800000	0.053219	0.241376
	0.000611	8.900000	-0.030660	0.241701
	0.000561	9.000000	0.018082	0.241112
	0.000594	9.100000	0.004525	0.240416
	0.000448	9.200000	-0.020723	0.239973
	0.000479	9.300000	0.045139	0.239828
	0.000533	9.400000	-0.065862	0.239814
	0.000530	9.500000	0.084823	0.239848
	0.000597	9.600000	-0.074850	0.238675
	0.000505	9.700000	0.058649	0.240783
	0.000558	9.800000	-0.036969	0.240082
	0.000469	9.900000	0.027998	0.240261
	9.216408	10.000000	-0.009932	0.239600
	10.004856	10.100000	-0.012600	0.239266
	10.003259	10.200000	0.033416	0.241245
	10.003389	10.300000	-0.048704	0.241000
	10.003089	10.400000	0.064095	0.239428
	10.002996	10.500000	-0.084789	0.240804
	10.003001	10.600000	0.078521	0.239905
	10.002930	10.700000	-0.057711	0.240449
	10.002969	10.800000	0.046972	0.240481
	10.003025	10.900000	-0.026107	0.241239
	2.886506	11.000000	0.005408	0.240914
	0.000693	11.100000	0.002756	0.243180
	0.000209	11.200000	-0.023450	0.240734
	0.000161	11.300000	0.036992	0.241308
	0.000184	11.400000	-0.057725	0.242075
	0.000107	11.500000	0.066776	0.241199
	6.925153E-5	11.600000	-0.083874	0.242200
	7.089670E-5	11.700000	0.076728	0.240345
	7.089670E-5	11.800000	-0.054120	0.240866
	4.292882E-5	11.900000	0.033366	0.240171
	4.950950E-5	12.000000	-0.009931	0.241214
	0.000451	12.100000	-0.010805	0.241242
	0.000592	12.200000	0.018976	0.239662
	0.000285	12.300000	-0.028873	0.238955
	8.570323E-5	12.400000	0.047810	0.239512
	0.000101	12.500000	-0.067640	0.238747
	0.000530	12.600000	0.088449	0.237538
	0.000566	12.700000	-0.072207	0.237113
	0.000252	12.800000	0.064100	0.236715
	7.089670E-5	12.900000	-0.041470	0.235598
	8.405806E-5	13.000000	0.030697	0.233960
	0.000171	13.100000	-0.018938	0.233653
	0.000132	13.200000	0.013550	0.231352
	5.773535E-5	13.300000	0.005415	0.231626
	6.102569E-5	13.400000	-0.026161	0.230076
	0.000319	13.500000	0.046943	0.228907
	0.000462	13.600000	-0.052332	0.227864
	0.000532	13.700000	0.060476	0.226884
	0.000258	13.800000	-0.081223	0.227624
	0.000252	13.900000	0.074915	0.223982
	0.000163	14.000000	-0.057839	0.223871
	0.000214	14.100000	0.035220	0.221133
	0.000234	14.200000	-0.012604	0.218023
	0.000347	14.300000	0.003611	0.217192
	0.000390	14.400000	0.017159	0.216169
	0.000407	14.500000	-0.036949	0.213399
	0.000321	14.600000	0.056891	0.210637
	0.000212	14.700000	-0.079405	0.208277
	0.000252	14.800000	0.082110	0.208917
	0.000267	14.900000	-0.070378	0.208329
	0.000308	15.000000	0.051419	0.206474
	0.000155	15.100000	-0.028856	0.204579
	0.000155	15.200000	0.009055	0.204730
	0.000124	15.300000	0.007259	0.203654
	0.000124	15.400000	-0.016219	0.202352
	0.000150	15.500000	0.037013	0.200423
	0.000160	15.600000	-0.052275	0.199231
	0.000178	15.700000	0.072194	0.197627
	0.000262	15.800000	-0.087499	0.195148
	0.000163	15.900000	0.064076	0.194710
	0.000107	16.000000	-0.043293	0.193485
	0.000179	16.100000	0.028885	0.191732
	0.000112	16.200000	-0.011706	0.191325
	-3.135938E-6	16.300000	-0.006278	0.189338
	0.000614	16.400000	0.026205	0.187231
	0.000295	16.500000	-0.045991	0.185987
	0.000214	16.600000	0.065886	0.185237
	0.000214	16.700000	-0.071248	0.186117
	0.000198	16.800000	0.089366	0.185813
	0.000122	16.900000	-0.072175	0.182506
	0.000120	17.000000	0.063178	0.181859
	0.000201	17.100000	-0.042377	0.181882
	0.000216	17.200000	0.020798	0.180921
	0.000152	17.300000	-0.000868	0.178805
	0.000207	17.400000	-0.008998	0.177400
	0.000161	17.500000	0.018981	0.176179
	0.000217	17.600000	-0.031559	0.174533
	0.000214	17.700000	0.043334	0.173986
	0.000217	17.800000	-0.064049	0.172335
	0.000254	17.900000	0.069491	0.172617
	0.000163	18.000000	-0.090236	0.172624
	0.000181	18.100000	0.074898	0.172131
	0.000262	18.200000	-0.053226	0.169680
	0.000443	18.300000	0.043345	0.169174
	0.000173	18.400000	-0.021670	0.167325
	0.000194	18.500000	3.036341E-5	0.168212
	0.000125	18.600000	0.011758	0.168124
	0.000115	18.700000	-0.031567	0.165528
	0.000132	18.800000	0.051426	0.164977
	0.000196	18.900000	-0.057717	0.164492
	0.000263	19.000000	0.081231	0.164851
	0.000332	19.100000	-0.084801	0.163440
	0.000305	19.200000	0.062281	0.163216
	0.000229	19.300000	-0.041498	0.161360
	0.000217	19.400000	0.021699	0.162642
	0.000262	19.500000	-0.015328	0.160831
	0.000234	19.600000	-0.008099	0.160612
	0.000206	19.700000	0.021653	0.160401
	0.000163	19.800000	-0.040624	0.159450
	0.000110	19.900000	0.062276	0.158963
	0.000416	20.000000	-0.079396	0.157912
	0.000583	20.100000	0.080326	0.156284
	0.000632	20.200000	-0.060432	0.157015
	0.000393	20.300000	0.052369	0.157343
	0.000191	20.400000	-0.034275	0.156587
	0.000216	20.500000	0.026186	0.156318
	0.000165	20.600000	-0.005397	0.156233
	0.000201	20.700000	-0.011710	0.155129
	0.000288	20.800000	0.020796	0.154877
	0.000239	20.900000	-0.036082	0.154939
	0.000285	21.000000	0.056901	0.154281
	0.000332	21.100000	-0.077575	0.153944
	0.000188	21.200000	0.085734	0.153021
	0.000280	21.300000	-0.062244	0.151877
	0.000265	21.400000	0.045150	0.153099
	0.000379	21.500000	-0.027945	0.150822
	0.000434	21.600000	0.014480	0.150214
	0.000281	21.700000	0.003628	0.150250
	0.000247	21.800000	-0.023439	0.150452
	0.000250	21.900000	0.044224	0.150766
	0.000257	22.000000	-0.066740	0.149114
	0.000263	22.100000	0.082132	0.148455
	0.000247	22.200000	-0.078467	0.148126
	0.000148	22.300000	0.064080	0.146890
	0.000211	22.400000	-0.055905	0.147236
	0.000250	22.500000	0.036142	0.148025
	0.000214	22.600000	-0.015314	0.146437
	0.000153	22.700000	-0.003565	0.148046
	0.000158	22.800000	0.018059	0.145109
	0.000171	22.900000	-0.042385	0.143729
	0.000265	23.000000	0.063181	0.146540
	0.000254	23.100000	-0.070352	0.145635
	0.000252	23.200000	0.086639	0.145760
	0.000239	23.300000	-0.073972	0.145313
	0.000196	23.400000	0.053254	0.144515
	0.000219	23.500000	-0.041459	0.144437
	0.000156	23.600000	0.030670	0.144701
	0.000110	23.700000	-0.008105	0.144528
	0.000152	23.800000	-0.004482	0.144168
	0.000201	23.900000	0.026211	0.143118
	0.000183	24.000000	-0.040579	0.143393
	0.000561	24.100000	0.046954	0.143207
	0.000166	24.200000	-0.064958	0.143749
	8.734840E-5	24.300000	0.074015	0.143278
	0.000629	24.400000	-0.089287	0.143095
	0.000280	24.500000	0.068594	0.142372
	0.000388	24.600000	-0.056835	0.144071
	0.000314	24.700000	0.038810	0.143165
	0.000280	24.800000	-0.018916	0.143493
	0.000250	24.900000	-0.000899	0.143933
	0.000309	25.000000	0.009943	0.143929
	0.000247	25.100000	-0.025232	0.142572
	0.000332	25.200000	0.042414	0.142193
	0.000285	25.300000	-0.056835	0.143114
	0.000272	25.400000	0.079411	0.144414
	0.000275	25.500000	-0.088386	0.144721
	0.000273	25.600000	0.067712	0.143686
	0.000152	25.700000	-0.052278	0.143739
	0.000242	25.800000	0.047850	0.143437
	0.000219	25.900000	-0.037865	0.143981
	0.000257	26.000000	0.028905	0.143280
	0.000303	26.100000	-0.013519	0.143333
	0.000125	26.200000	-0.005371	0.145556
	0.000204	26.300000	0.022562	0.144069
	0.000211	26.400000	-0.034265	0.144014
	0.000232	26.500000	0.050542	0.144496
	0.000239	26.600000	-0.058630	0.144134
	0.000257	26.700000	0.067691	0.143558
	0.000170	26.800000	-0.085691	0.142826
	0.000191	26.900000	0.073986	0.142487
	0.000239	27.000000	-0.055921	0.143154
	0.000309	27.100000	0.042430	0.143039
	0.000227	27.200000	-0.018913	0.142339
	0.000222	27.300000	0.005425	0.143011
	0.000232	27.400000	0.000910	0.143233
	0.000232	27.500000	-0.019830	0.142323
	0.000321	27.600000	0.037942	0.143683
	0.000326	27.700000	-0.045078	0.144228
	0.000334	27.800000	0.054159	0.143926
	0.000258	27.900000	-0.064057	0.142612
	0.000275	28.000000	0.076718	0.143644
	0.000227	28.100000	-0.085667	0.144011
	0.000250	28.200000	0.072189	0.144276
	0.000237	28.300000	-0.061306	0.143776
	0.000104	28.400000	0.046038	0.144845
	0.000194	28.500000	-0.035148	0.143124
	0.000119	28.600000	0.021680	0.140402
	0.000128	28.700000	2.871496E-5	0.139540
	0.000150	28.800000	-0.008103	0.141203
	9.063874E-5	28.900000	0.013546	0.143712
	0.000214	29.000000	-0.029769	0.143338
	0.000314	29.100000	0.050565	0.140951
	0.000273	29.200000	-0.058632	0.139995
	0.000239	29.300000	0.077604	0.140584
	0.000178	29.400000	-0.082982	0.140200
	0.000150	29.500000	0.059560	0.139632
	0.000226	29.600000	-0.036971	0.141608
	0.000125	29.700000	0.027997	0.141377
	0.000500	29.800000	-0.022523	0.141778
	0.000133	29.900000	0.014466	0.141794
	0.000181	30.000000	-0.004499	0.142036
	0.000217	30.100000	-0.015329	0.141316
	0.000229	30.200000	0.035216	0.141308
	0.000288	30.300000	-0.040595	0.143473
	0.000272	30.400000	0.056887	0.141543
	0.000235	30.500000	-0.079385	0.141308
	0.000155	30.600000	0.090262	0.141567
	0.000198	30.700000	-0.080278	0.141622
	0.000252	30.800000	0.065925	0.141655
	0.000110	30.900000	-0.044180	0.141800
	0.000101	31.000000	0.030669	0.141007
	9.557425E-5	31.100000	-0.018934	0.141141
	0.000189	31.200000	0.001840	0.141651
	0.000244	31.300000	0.021692	0.143217
	0.000181	31.400000	-0.044199	0.142816
	0.000178	31.500000	0.051456	0.143074
	0.000214	31.600000	-0.073970	0.143293
	0.000140	31.700000	0.089334	0.143050
	0.000135	31.800000	-0.067690	0.143380
	8.241289E-5	31.900000	0.059589	0.144084
	0.000203	32.000000	-0.042383	0.142615
	0.000181	32.100000	0.021691	0.143208
	0.000161	32.200000	-0.013496	0.143651
	0.000201	32.300000	-0.008093	0.143544
	0.000143	32.400000	0.018066	0.144391
	0.000124	32.500000	-0.030649	0.143019
	0.000179	32.600000	0.050527	0.144442
	0.000193	32.700000	-0.066730	0.142937
	0.000212	32.800000	0.090205	0.144713
	0.000219	32.900000	-0.070362	0.144606
	0.000196	33.000000	0.052341	0.143884
	0.000212	33.100000	-0.031543	0.144751
	0.000173	33.200000	0.021643	0.144084
	0.000235	33.300000	-0.004486	0.144424
	0.000280	33.400000	-0.014429	0.145716
	0.000186	33.500000	0.036070	0.145822
	0.000270	33.600000	-0.057707	0.145604
	0.000232	33.700000	0.072193	0.144812
	0.000341	33.800000	-0.082097	0.146270
	0.000295	33.900000	0.077640	0.146914
	0.000342	34.000000	-0.066724	0.146205
	0.000291	34.100000	0.056889	0.144970
	0.000362	34.200000	-0.036036	0.144766
	0.000255	34.300000	0.017146	0.145484
	0.000258	34.400000	0.005444	0.144902
	0.000270	34.500000	-0.014422	0.145497
	0.000337	34.600000	0.024356	0.144503
	0.000360	34.700000	-0.036968	0.146756
	0.000272	34.800000	0.051469	0.147749
	0.000135	34.900000	-0.067644	0.148475
	0.000147	35.000000	0.088460	0.147030
	0.000171	35.100000	-0.070353	0.147933
	0.000155	35.200000	0.059577	0.146463
	0.000122	35.300000	-0.052317	0.148814
	0.000142	35.400000	0.032500	0.147112
	0.000188	35.500000	-0.009010	0.147789
	0.000189	35.600000	-0.012620	0.146840
	0.000183	35.700000	0.035213	0.148525
	0.000230	35.800000	-0.053217	0.145988
	0.000188	35.900000	0.076695	0.148047
	0.000132	36.000000	-0.084774	0.146884
	0.000119	36.100000	0.089347	0.149354
	0.000229	36.200000	-0.068546	0.148912
	0.000117	36.300000	0.060460	0.149929
	0.000156	36.400000	-0.044189	0.149630
	0.000137	36.500000	0.023459	0.149601
	0.000502	36.600000	-0.004487	0.149470
	0.000309	36.700000	-0.017140	0.150789
	0.000147	36.800000	0.037927	0.149423
	0.000234	36.900000	-0.061340	0.148328
	0.000183	37.000000	0.075798	0.149625
	0.000226	37.100000	-0.087482	0.150636
	0.000252	37.200000	0.068573	0.151025
	0.000235	37.300000	-0.047784	0.148850
	0.000204	37.400000	0.038823	0.150954
	0.000278	37.500000	-0.032445	0.151852
	0.000214	37.600000	0.009042	0.152281
	0.000277	37.700000	0.000896	0.150763
	0.000321	37.800000	-0.014437	0.150761
	0.000229	37.900000	0.021663	0.151248
	0.000226	38.000000	-0.041488	0.152001
	0.000313	38.100000	0.059561	0.151031
	0.000214	38.200000	-0.070339	0.152659
	0.000263	38.300000	0.089320	0.152313
	0.000194	38.400000	-0.074866	0.152142
	0.000303	38.500000	0.053254	0.153530
	0.000331	38.600000	-0.035153	0.153666
	0.000226	38.700000	0.014464	0.153673
	0.000161	38.800000	-0.001765	0.154872
	0.000258	38.900000	-0.014425	0.154713
	0.000255	39.000000	0.032505	0.155787
	0.000275	39.100000	-0.055014	0.154084
	0.000219	39.200000	0.072204	0.156653
	0.000569	39.300000	-0.089289	0.157092
	0.000655	39.400000	0.083048	0.156576
	0.000199	39.500000	-0.059512	0.154971
	0.000204	39.600000	0.050521	0.156982
	0.000133	39.700000	-0.033356	0.157191
	0.000240	39.800000	0.027981	0.156071
	0.000196	39.900000	-0.013526	0.154177
	0.000240	40.000000	-0.005352	0.156396
	0.000143	40.100000	0.027096	0.154802
	0.000250	40.200000	-0.039664	0.156530
	0.000219	40.300000	0.046930	0.157426
	0.000247	40.400000	-0.064897	0.156621
	0.000178	40.500000	0.086602	0.157325
	0.000267	40.600000	-0.074843	0.156555
	0.000249	40.700000	0.058648	0.156569
	0.000173	40.800000	-0.041512	0.157932
	0.000184	40.900000	0.019862	0.157043
	0.000250	41.000000	-0.002702	0.157146
	0.000226	41.100000	-0.017116	0.158356
	0.000224	41.200000	0.026169	0.159697
	0.000239	41.300000	-0.032453	0.159246
	0.000288	41.400000	0.052354	0.159344
	0.000257	41.500000	-0.072166	0.161864
	0.000291	41.600000	0.086635	0.164832
	0.000191	41.700000	-0.073941	0.165253
	0.000286	41.800000	0.061392	0.168137
	0.000286	41.900000	-0.039664	0.166887
	0.000234	42.000000	0.034303	0.168783
	0.000356	42.100000	-0.014402	0.172464
	0.000206	42.200000	-0.003585	0.169798
	0.000244	42.300000	0.026176	0.169095
	0.000191	42.400000	-0.043300	0.167750
	0.000173	42.500000	0.064088	0.164892
	0.000291	42.600000	-0.079384	0.161647
	0.000281	42.700000	0.088451	0.161401
	0.000316	42.800000	-0.068544	0.163552
	0.000323	42.900000	0.046025	0.161793
	0.000278	43.000000	-0.038785	0.163512
	0.000357	43.100000	0.032491	0.162288
	0.000351	43.200000	-0.025257	0.163408
	0.000286	43.300000	0.002725	0.162012
	0.000319	43.400000	0.006357	0.164050
	0.000301	43.500000	-0.016218	0.163388
	0.000321	43.600000	0.027083	0.163424
	0.000314	43.700000	-0.046906	0.164405
	0.000370	43.800000	0.054150	0.163668
	0.000277	43.900000	-0.069465	0.163929
	0.000337	44.000000	0.090232	0.162401
	0.000370	44.100000	-0.067644	0.162556
	0.000283	44.200000	0.046027	0.165663
	0.000309	44.300000	-0.038782	0.163797
	0.000313	44.400000	0.026185	0.164706
	0.000204	44.500000	-0.007208	0.163486
	0.000270	44.600000	-0.008099	0.165745
	0.000416	44.700000	0.027969	0.165711
	0.000332	44.800000	-0.048696	0.164261
	0.000311	44.900000	0.065885	0.164937
	0.000305	45.000000	-0.089268	0.164872
	0.000385	45.100000	0.083034	0.166587
	0.000311	45.200000	-0.064933	0.166850
	0.000283	45.300000	0.056819	0.166612
	0.000301	45.400000	-0.033320	0.167379
	0.000344	45.500000	0.027092	0.165359
	0.000387	45.600000	-0.009056	0.163819
	0.000314	45.700000	-0.011685	0.164023
	0.000258	45.800000	0.025285	0.163890
	0.000255	45.900000	-0.038800	0.164363
	0.000273	46.000000	0.057765	0.162536
	0.000346	46.100000	-0.078479	0.163671
	0.000388	46.200000	0.086636	0.162621
	0.000291	46.300000	-0.082979	0.160703
	0.000308	46.400000	0.072181	0.163110
	0.000360	46.500000	-0.049597	0.162709
	0.000372	46.600000	0.040627	0.161580
	0.000313	46.700000	-0.027059	0.162820
	0.000323	46.800000	0.007238	0.164249
	0.000295	46.900000	0.014460	0.163515
	0.000245	47.000000	-0.020749	0.164766
	0.000267	47.100000	0.036995	0.165117
	0.000211	47.200000	-0.044183	0.163720
	0.000281	47.300000	0.055046	0.165361
	0.000296	47.400000	-0.073050	0.166677
	0.000309	47.500000	0.088445	0.166700
	0.000250	47.600000	-0.064927	0.167187
	0.000160	47.700000	0.055931	0.167062
	0.000273	47.800000	-0.038754	0.167905
	0.000400	47.900000	0.015349	0.165545
	0.000316	48.000000	-0.004501	0.166190
	0.000306	48.100000	-0.004475	0.165375
	0.000288	48.200000	0.024392	0.164562
	0.000397	48.300000	-0.044178	0.164258
	0.000372	48.400000	0.051434	0.165118
	0.000303	48.500000	-0.062228	0.165793
	0.000418	48.600000	0.078469	0.166544
	0.000342	48.700000	-0.079363	0.168175
	0.000453	48.800000	0.056857	0.167059
	0.000362	48.900000	-0.046905	0.167428
	0.000393	49.000000	0.031611	0.169257
	0.000286	49.100000	-0.011722	0.169132
	0.000295	49.200000	0.000926	0.168281
	0.000290	49.300000	0.006333	0.170425
	0.000277	49.400000	-0.023434	0.169957
	0.000265	49.500000	0.043329	0.168690
	0.000254	49.600000	-0.054065	0.168998
	0.000344	49.700000	0.069464	0.169376
	0.000311	49.800000	-0.078448	0.170169
	0.000275	49.900000	0.081219	0.171137
	0.000239	50.000000	-0.061342	0.170736
	0.000288	50.100000	0.041501	0.172507
	0.000263	50.200000	-0.018039	0.172684
	0.000153	50.300000	0.008151	0.174148
	0.000191	50.400000	0.004539	0.173248
	0.000329	50.500000	-0.013508	0.172986
	0.000301	50.600000	0.023455	0.172393
	0.000387	50.700000	-0.033362	0.172640
	0.000339	50.800000	0.042417	0.171937
	0.000372	50.900000	-0.056802	0.172096
	0.000298	51.000000	0.063174	0.172373
	0.000305	51.100000	-0.073067	0.173308
	0.000332	51.200000	0.087509	0.174152
	0.000344	51.300000	-0.074871	0.174762
	0.000288	51.400000	0.058660	0.174617
	0.000347	51.500000	-0.036034	0.173972
	0.000296	51.600000	0.028008	0.175298
	0.000247	51.700000	-0.015301	0.176424
	0.000314	51.800000	0.005411	0.175681
	0.000410	51.900000	0.008150	0.176860
	0.000300	52.000000	-0.018029	0.177534
	0.000263	52.100000	0.030671	0.178297
	0.000273	52.200000	-0.053208	0.177788
	0.000306	52.300000	0.064077	0.178476
	0.000400	52.400000	-0.073934	0.178673
	0.000295	52.500000	0.083007	0.177729
	0.000354	52.600000	-0.062218	0.176579
	0.000265	52.700000	0.054133	0.177210
	0.000349	52.800000	-0.041496	0.178413
	0.000255	52.900000	0.022559	0.178337
	0.000323	53.000000	1.737307E-5	0.177325
	0.000291	53.100000	-0.008122	0.177676
	0.000462	53.200000	0.018017	0.176144
	0.000306	53.300000	-0.027954	0.176457
	0.000314	53.400000	0.037888	0.177651
	0.000306	53.500000	-0.048663	0.176843
	0.000341	53.600000	0.063148	0.177021
	0.000313	53.700000	-0.071261	0.176695
	0.000328	53.800000	0.083045	0.176903
	0.000342	53.900000	-0.080265	0.177646
	0.000370	54.000000	0.064956	0.177861
	0.000240	54.100000	-0.046845	0.179221
	0.000245	54.200000	0.027083	0.179442
	0.000189	54.300000	-0.019819	0.178753
	0.000255	54.400000	0.009930	0.179629
	0.000237	54.500000	3.356177E-5	0.177836
	0.000313	54.600000	-0.005391	0.180619
	0.000242	54.700000	0.023469	0.179907
	0.000203	54.800000	-0.044184	0.181234
	0.000303	54.900000	0.052354	0.180054
	0.000222	55.000000	-0.072136	0.180371
	0.000263	55.100000	0.081199	0.180888
	0.000263	55.200000	-0.088396	0.179569
	0.000283	55.300000	0.079417	0.178148
	0.000207	55.400000	-0.064045	0.179500
	0.000163	55.500000	0.055971	0.180291
	0.000211	55.600000	-0.045096	0.179668
	0.000316	55.700000	0.034298	0.179094
	0.000336	55.800000	-0.016215	0.179596
	0.000214	55.900000	-0.004507	0.177701
	0.000278	56.000000	0.010864	0.179634
	0.000425	56.100000	-0.022561	0.178879
	0.000397	56.200000	0.031593	0.180085
	0.000434	56.300000	-0.040577	0.180654
	0.000341	56.400000	0.047845	0.181528
	0.000227	56.500000	-0.057716	0.180112
	0.000272	56.600000	0.073097	0.178816
	0.000293	56.700000	-0.081135	0.180650
	0.000295	56.800000	0.088453	0.179186
	0.000263	56.900000	-0.080284	0.179289
	0.000203	57.000000	0.073394	0.181618
	0.000199	57.100000	-0.059521	0.180099
	0.000255	57.200000	0.040596	0.180001
	0.000293	57.300000	-0.019819	0.180652
	0.000303	57.400000	0.009952	0.181640
	0.000356	57.500000	0.008142	0.182807
	0.000347	57.600000	-0.027935	0.181779
	0.000331	57.700000	0.036995	0.181885
	0.000260	57.800000	-0.057671	0.181880
	0.000183	57.900000	0.078511	0.182826
	0.000194	58.000000	-0.087463	0.183822
	0.000178	58.100000	0.079415	0.182412
	0.000230	58.200000	-0.073071	0.184372
	0.000237	58.300000	0.058674	0.183368
	0.000239	58.400000	-0.048671	0.184486
	0.000194	58.500000	0.042419	0.184018
	0.000155	58.600000	-0.027941	0.182717
	0.000156	58.700000	0.011725	0.183115
	0.000175	58.800000	0.006317	0.184154
	0.000170	58.900000	-0.017123	0.184593
	0.000216	59.000000	0.030682	0.184677
	0.000158	59.100000	-0.037875	0.183347
	0.000193	59.200000	0.046895	0.182717
	0.000168	59.300000	-0.055903	0.184730
	0.000224	59.400000	0.072185	0.183986
	0.000201	59.500000	-0.089275	0.184627
	0.000216	59.600000	0.070408	0.184312
	0.000212	59.700000	-0.049608	0.184622
	0.000196	59.800000	0.027983	0.183382
	0.000170	59.900000	-0.019858	0.183806
	0.000204	60.000000	0.009041	0.182923
	0.000364	60.100000	0.000923	0.183019
	0.000275	60.200000	-0.010816	0.182629
	0.000250	60.300000	0.018980	0.183261
	0.000211	60.400000	-0.033337	0.184984
	0.000298	60.500000	0.046922	0.183917
	0.000290	60.600000	-0.064911	0.184738
	0.000183	60.700000	0.087503	0.185110
	0.000268	60.800000	-0.084785	0.185791
	0.000204	60.900000	0.072172	0.185511
	0.000193	61.000000	-0.051398	0.185839
	0.000244	61.100000	0.035218	0.185976
	0.000254	61.200000	-0.016197	0.186131
	0.000135	61.300000	-0.006301	0.186537
	0.000318	61.400000	0.027991	0.186071
	0.000329	61.500000	-0.036964	0.187469
	0.000459	61.600000	0.050553	0.188223
	0.000421	61.700000	-0.057680	0.185916
	0.000515	61.800000	0.064090	0.187999
	0.000397	61.900000	-0.074817	0.186876
	0.000365	62.000000	0.085723	0.186723
	0.000341	62.100000	-0.079362	0.188601
	0.000258	62.200000	0.064083	0.185966
	0.000280	62.300000	-0.057714	0.187965
	0.000198	62.400000	0.040622	0.188739
	0.000189	62.500000	-0.033361	0.187811
	0.000165	62.600000	0.021681	0.189433
	0.000196	62.700000	-0.006305	0.188385
	0.000337	62.800000	-0.014390	0.188329
	0.000303	62.900000	0.023468	0.188718
	0.000308	63.000000	-0.033344	0.187498
	0.000272	63.100000	0.052327	0.188215
	0.000286	63.200000	-0.075759	0.191245
	0.000369	63.300000	0.083920	0.190253
	0.000374	63.400000	-0.087504	0.189794
	0.000332	63.500000	0.078505	0.190907
	0.000354	63.600000	-0.069460	0.190036
	0.000314	63.700000	0.059566	0.190058
	0.000283	63.800000	-0.048693	0.192118
	0.000242	63.900000	0.039721	0.191852
	0.000326	64.000000	-0.030643	0.192371
	0.000285	64.100000	0.021667	0.191589
	0.000234	64.200000	-0.014401	0.191085
	0.000309	64.300000	-0.004468	0.191205
	0.000316	64.400000	0.009949	0.192229
	0.000362	64.500000	-0.022685	0.192313
	0.000268	64.600000	0.041514	0.191499
	0.000293	64.700000	-0.061298	0.190883
	0.000278	64.800000	0.069481	0.191232
	0.000347	64.900000	-0.076667	0.191627
	0.000186	65.000000	0.086616	0.193060
	0.000224	65.100000	-0.073953	0.191835
	0.000300	65.200000	0.068564	0.190999
	0.000265	65.300000	-0.054095	0.190712
	0.000230	65.400000	0.038812	0.191790
	0.000242	65.500000	-0.031527	0.191847
	0.000277	65.600000	0.022571	0.190614
	0.000170	65.700000	-0.016206	0.192437
	0.000283	65.800000	0.002732	0.190760
	0.000128	65.900000	0.006392	0.192568
	0.000698	66.000000	-0.016212	0.192720
	0.000298	66.100000	0.023492	0.191070
	0.000227	66.200000	-0.032449	0.191527
	0.000138	66.300000	0.041518	0.191442
	0.000232	66.400000	-0.050483	0.192054
	0.000176	66.500000	0.064068	0.193805
	0.000188	66.600000	-0.081154	0.192722
	0.000324	66.700000	0.082110	0.193038
	0.000263	66.800000	-0.073954	0.193388
	0.000260	66.900000	0.054980	0.191910
	0.000329	67.000000	-0.034271	0.192802
	0.000230	67.100000	0.014449	0.192133
	0.000201	67.200000	-0.007210	0.193589
	0.000216	67.300000	-0.001788	0.191144
	0.000283	67.400000	0.009057	0.192685
	0.000194	67.500000	-0.023431	0.193361
	0.000281	67.600000	0.041505	0.193983
	0.000413	67.700000	-0.054985	0.193508
	0.000351	67.800000	0.072141	0.193341
	0.000418	67.900000	-0.089309	0.193183
	0.000359	68.000000	0.080301	0.195485
	0.000221	68.100000	-0.072141	0.193362
	0.000382	68.200000	0.055039	0.194377
	0.000337	68.300000	-0.036034	0.194842
	0.000370	68.400000	0.028013	0.195230
	0.000393	68.500000	-0.007197	0.194207
	0.000413	68.600000	-0.005415	0.196919
	0.000451	68.700000	0.017156	0.193853
	0.000438	68.800000	-0.036957	0.195507
	0.000385	68.900000	0.045131	0.196053
	0.000331	69.000000	-0.054999	0.192582
	0.000267	69.100000	0.062248	0.195935
	0.000380	69.200000	-0.068505	0.195885
	0.000280	69.300000	0.084820	0.195514
	0.000326	69.400000	-0.088352	0.194321
	0.000193	69.500000	0.078511	0.197037
	0.000255	69.600000	-0.068528	0.196649
	0.000258	69.700000	0.054126	0.196747
	0.000298	69.800000	-0.037875	0.196835
	0.000314	69.900000	0.030722	0.197608
	0.000305	70.000000	-0.024348	0.195647
	0.000242	70.100000	0.003642	0.198923
	0.000300	70.200000	0.014476	0.197399
	0.000199	70.300000	-0.025221	0.197513
	0.000207	70.400000	0.043291	0.198144
	0.000329	70.500000	-0.050497	0.198675
	0.000232	70.600000	0.065922	0.197861
	0.000272	70.700000	-0.089282	0.198690
	0.000346	70.800000	0.073088	0.198426
	0.000402	70.900000	-0.056803	0.199381
	0.000400	71.000000	0.050526	0.199185
	0.000301	71.100000	-0.036940	0.199530
	0.000318	71.200000	0.030726	0.198820
	0.000221	71.300000	-0.018011	0.201412
	0.000211	71.400000	0.009031	0.200370
	0.000183	71.500000	-0.000869	0.202387
	0.000105	71.600000	-0.008993	0.201095
	0.000191	71.700000	0.016236	0.201358
	0.000352	71.800000	-0.027032	0.201536
	0.000252	71.900000	0.037890	0.201940
	0.000140	72.000000	-0.045974	0.200960
	0.000214	72.100000	0.056859	0.202186
	0.000194	72.200000	-0.066743	0.202270
	0.000219	72.300000	0.073976	0.203467
	0.000128	72.400000	-0.082962	0.202799
	0.000211	72.500000	0.086616	0.203557
	9.063874E-5	72.600000	-0.077552	0.203300
	0.000148	72.700000	0.061356	0.203863
	0.000145	72.800000	-0.054122	0.204313
	0.000158	72.900000	0.044204	0.205203
	0.000188	73.000000	-0.034251	0.204295
	0.000168	73.100000	0.019853	0.203421
	0.000254	73.200000	-0.007201	0.203088
	0.000224	73.300000	1.440575E-5	0.201060
	0.000168	73.400000	0.010842	0.203932
	0.000163	73.500000	-0.024343	0.203506
	0.000249	73.600000	0.039724	0.203182
	0.000443	73.700000	-0.055885	0.204413
	0.000206	73.800000	0.074895	0.204721
	0.000148	73.900000	-0.081138	0.204680
	0.000186	74.000000	0.083916	0.204656
	0.000193	74.100000	-0.075759	0.203832
	0.000323	74.200000	0.065863	0.204634
	0.000147	74.300000	-0.054129	0.205389
	0.000191	74.400000	0.045128	0.204544
	0.000230	74.500000	-0.030635	0.205359
	0.000230	74.600000	0.012635	0.206407
	0.000277	74.700000	-0.006265	0.205842
	0.000265	74.800000	-0.009032	0.205908
	0.000254	74.900000	0.017157	0.205842
	0.000247	75.000000	-0.028864	0.205041
	0.000254	75.100000	0.035181	0.207551
	0.000300	75.200000	-0.047790	0.205527
	0.000313	75.300000	0.060467	0.207656
	0.000332	75.400000	-0.077561	0.207839
	0.000303	75.500000	0.087518	0.206328
	0.000305	75.600000	-0.070376	0.205885
	0.000267	75.700000	0.053332	0.207472
	0.000239	75.800000	-0.045979	0.207153
	0.000196	75.900000	0.034312	0.206291
	0.000204	76.000000	-0.020739	0.208280
	0.000178	76.100000	0.002716	0.207790
	0.000173	76.200000	0.005446	0.207395
	0.000221	76.300000	-0.016221	0.207931
	0.000199	76.400000	0.024363	0.206457
	0.000153	76.500000	-0.031543	0.206297
	0.000173	76.600000	0.039728	0.207301
	0.000207	76.700000	-0.048666	0.206936
	0.000170	76.800000	0.056856	0.208265
	0.000115	76.900000	-0.064910	0.207411
	0.000160	77.000000	0.078483	0.208591
	4.457399E-5	77.100000	-0.085672	0.207634
	0.000109	77.200000	0.079401	0.206613
	0.000454	77.300000	-0.066722	0.208269
	0.000229	77.400000	0.051452	0.208093
	0.000221	77.500000	-0.041457	0.207936
	0.000147	77.600000	0.028873	0.208731
	0.000240	77.700000	-0.013524	0.207341
	0.000163	77.800000	-0.005369	0.208210
	0.000222	77.900000	0.022575	0.208852
	0.000188	78.000000	-0.029736	0.207833
	0.000119	78.100000	0.038806	0.208491
	0.000161	78.200000	-0.054088	0.207447
	0.000105	78.300000	0.062249	0.208109
	0.000579	78.400000	-0.081179	0.208492
	0.000551	78.500000	0.080290	0.207118
	0.000569	78.600000	-0.071218	0.206376
	0.000607	78.700000	0.061346	0.206607
	0.000370	78.800000	-0.054097	0.206826
	0.000163	78.900000	0.044218	0.206066
	0.000400	79.000000	-0.031562	0.206648
	0.000303	79.100000	0.024362	0.207010
	0.000198	79.200000	-0.014419	0.208914
	0.000143	79.300000	0.005405	0.205358
	0.000625	79.400000	0.005445	0.205814
	0.000601	79.500000	-0.017108	0.207694
	0.000420	79.600000	0.026205	0.208696
	0.000594	79.700000	-0.035163	0.207797
	0.000517	79.800000	0.045139	0.207416
	0.000487	79.900000	-0.055852	0.209350
	0.000500	80.000000	0.070380	0.209043
	0.000571	80.100000	-0.090165	0.211225
	0.000533	80.200000	0.081175	0.213463
	0.000540	80.300000	-0.073001	0.215168
	0.000561	80.400000	0.060438	0.216920
	0.000622	80.500000	-0.053266	0.217995
	0.000536	80.600000	0.041522	0.216840
	4.292882E-5	80.700000	-0.027036	0.216961
	0.000145	80.800000	0.012635	0.218400
	0.000145	80.900000	-0.001798	0.217915
	0.000132	81.000000	-0.003585	0.216665
	0.000171	81.100000	0.023463	0.217590
	0.000135	81.200000	-0.035139	0.218138
	0.000122	81.300000	0.053223	0.218869
	0.000175	81.400000	-0.064026	0.218197
	9.392908E-5	81.500000	0.073970	0.219302
	0.000193	81.600000	-0.079355	0.219144
	0.000115	81.700000	0.086597	0.219371
	9.557425E-5	81.800000	-0.084758	0.219303
	0.000170	81.900000	0.074035	0.219503
	0.000196	82.000000	-0.065840	0.219217
	0.000254	82.100000	0.054150	0.219465
	0.000188	82.200000	-0.045982	0.219121
	0.000188	82.300000	0.031589	0.220378
	0.000219	82.400000	-0.015303	0.219828
	0.000203	82.500000	0.005424	0.218086
	0.000132	82.600000	0.003646	0.220768
	0.000124	82.700000	-0.011718	0.219213
	0.000128	82.800000	0.019871	0.219948
	0.000224	82.900000	-0.026122	0.219284
	0.000155	83.000000	0.041486	0.220466
	0.000112	83.100000	-0.048695	0.218346
	7.912255E-5	83.200000	0.058686	0.218475
	8.570323E-5	83.300000	-0.071228	0.218502
	0.000147	83.400000	0.087504	0.220900
	0.000199	83.500000	-0.086569	0.220805
	0.000300	83.600000	0.075802	0.220397
	0.000316	83.700000	-0.067612	0.220030
	0.000308	83.800000	0.058662	0.220468
	0.000117	83.900000	-0.052275	0.220611
	7.418704E-5	84.000000	0.041528	0.220894
	0.000224	84.100000	-0.031590	0.220229
	0.000262	84.200000	0.023484	0.220795
	0.000191	84.300000	-0.016227	0.221630
	0.000163	84.400000	0.000913	0.221323
	0.000150	84.500000	0.010844	0.222177
	0.000143	84.600000	-0.028855	0.222232
	0.000132	84.700000	0.039705	0.222249
	0.000145	84.800000	-0.047799	0.223058
	9.063874E-5	84.900000	0.056865	0.222496
	0.000693	85.000000	-0.066753	0.222443
	0.000693	85.100000	0.079373	0.221243
	0.000673	85.200000	-0.087449	0.222204
	0.000458	85.300000	0.078504	0.221900
	0.000183	85.400000	-0.070351	0.221152
	0.000301	85.500000	0.064972	0.221468
	0.000645	85.600000	-0.053215	0.221127
	0.000543	85.700000	0.038774	0.220578
	0.000592	85.800000	-0.030649	0.220812
	0.000275	85.900000	0.017154	0.221327
	0.000194	86.000000	-0.008087	0.220821
	0.000148	86.100000	0.001816	0.219589
	0.000214	86.200000	0.011756	0.220082
	0.000280	86.300000	-0.018905	0.217199
	0.000578	86.400000	0.028885	0.217213
	0.000571	86.500000	-0.037859	0.215257
	0.000171	86.600000	0.044223	0.216772
	0.000209	86.700000	-0.051395	0.216571
	0.000101	86.800000	0.058654	0.217657
	8.570323E-5	86.900000	-0.066736	0.215626
	0.000555	87.000000	0.077601	0.214896
	0.000359	87.100000	-0.083818	0.217641
	0.000433	87.200000	0.088431	0.217072
	0.000365	87.300000	-0.082958	0.216902
	0.000619	87.400000	0.077612	0.218055
	0.000615	87.500000	-0.056799	0.215596
	0.000657	87.600000	0.048727	0.216826
	0.000569	87.700000	-0.037857	0.221578
	0.000545	87.800000	0.028010	0.223418
	0.000500	87.900000	-0.021619	0.224233
	0.000566	88.000000	0.014469	0.224796
	0.000293	88.100000	-0.003585	0.225468
	0.000112	88.200000	-0.006306	0.223252
	0.000540	88.300000	0.011746	0.224036
	0.000592	88.400000	-0.020753	0.226798
	0.000625	88.500000	0.030660	0.224602
	0.000568	88.600000	-0.046010	0.225908
	0.000622	88.700000	0.062261	0.223206
	0.000642	88.800000	-0.069456	0.222141
	0.000538	88.900000	0.076692	0.220230
	0.000645	89.000000	-0.089282	0.219740
	0.000563	89.100000	0.082114	0.218299
	0.000555	89.200000	-0.070362	0.218965
	0.000352	89.300000	0.064047	0.218424
	0.000184	89.400000	-0.058605	0.217087
	6.925153E-5	89.500000	0.050502	0.217955
	0.000525	89.600000	-0.040557	0.217262
	0.000494	89.700000	0.034276	0.218375
	0.000545	89.800000	-0.017151	0.217973
	0.000398	89.900000	0.009041	0.216993
	7.089670E-5	90.000000	-0.001781	0.218263
	8.899357E-5	90.100000	-0.007213	0.219067
	0.000418	90.200000	0.015352	0.218518
	0.000563	90.300000	-0.021630	0.217705
	0.000500	90.400000	0.030652	0.218167
	0.000458	90.500000	-0.038721	0.217449
	0.000578	90.600000	0.044200	0.218530
	0.000540	90.700000	-0.050473	0.217412
	0.000589	90.800000	0.055976	0.216954
	0.000592	90.900000	-0.061291	0.218958
	0.000553	91.000000	0.066758	0.218098
	0.000584	91.100000	-0.072144	0.217818
	0.000597	91.200000	0.077622	0.217045
	0.000382	91.300000	-0.089296	0.217409
	9.392908E-5	91.400000	0.082093	0.217488
	8.734840E-5	91.500000	-0.072127	0.217124
	0.000105	91.600000	0.066787	0.217762
	0.000119	91.700000	-0.061321	0.217258
	0.000119	91.800000	0.053229	0.218713
	0.000135	91.900000	-0.045090	0.217778
	9.886459E-5	92.000000	0.035213	0.216980
	0.000186	92.100000	-0.021617	0.218662
	0.000183	92.200000	0.015331	0.216572
	6.760636E-5	92.300000	-0.003594	0.217187
	0.000120	92.400000	-0.003611	0.217293
	5.609018E-5	92.500000	0.011739	0.216880
	4.950950E-5	92.600000	-0.019799	0.218872
	0.000198	92.700000	0.027093	0.217143
	6.267086E-5	92.800000	-0.036076	0.219498
	9.886459E-5	92.900000	0.046030	0.219326
	0.000156	93.000000	-0.055927	0.220505
	0.000411	93.100000	0.067660	0.219424
	0.000540	93.200000	-0.081142	0.219613
	0.000564	93.300000	0.087550	0.219355
	0.000528	93.400000	-0.082057	0.219271
	0.000561	93.500000	0.071295	0.218100
	0.000191	93.600000	-0.064007	0.217689
	7.089670E-5	93.700000	0.055979	0.217469
	0.000632	93.800000	-0.048656	0.217098
	0.000594	93.900000	0.039715	0.217568
	0.000555	94.000000	-0.030638	0.216005
	0.000555	94.100000	0.022588	0.214269
	0.000504	94.200000	-0.016201	0.213315
	0.000645	94.300000	0.009057	0.213963
	0.000553	94.400000	4.477194E-5	0.215146
	0.000122	94.500000	-0.012598	0.217435
	0.000150	94.600000	0.019852	0.215363
	0.000680	94.700000	-0.030636	0.214845
	0.000634	94.800000	0.037020	0.214209
	0.000395	94.900000	-0.046867	0.214644
	0.000173	95.000000	0.062226	0.214568
	0.000148	95.100000	-0.067649	0.215402
	0.000112	95.200000	0.075811	0.216180
	0.000204	95.300000	-0.082049	0.216099
	5.938052E-5	95.400000	0.086639	0.216669
	9.228391E-5	95.500000	-0.074866	0.216722
	0.000207	95.600000	0.067683	0.215459
	0.000652	95.700000	-0.055010	0.216586
	0.000630	95.800000	0.048738	0.215946
	0.000132	95.900000	-0.042365	0.214996
	0.000314	96.000000	0.034304	0.216895
	0.000441	96.100000	-0.027948	0.216798
	0.000469	96.200000	0.019865	0.215821
	0.000464	96.300000	-0.010801	0.218164
	0.000530	96.400000	0.001844	0.216763
	0.000550	96.500000	0.006316	0.217684
	0.000522	96.600000	-0.013525	0.218317
	0.000589	96.700000	0.020749	0.217173
	0.000543	96.800000	-0.031579	0.218078
	0.000561	96.900000	0.040591	0.217435
	0.000609	97.000000	-0.048689	0.216131
	0.000528	97.100000	0.055994	0.219333
	0.000609	97.200000	-0.064914	0.218596
	0.000165	97.300000	0.077598	0.219652
	0.000306	97.400000	-0.086559	0.218301
	7.089670E-5	97.500000	0.086601	0.217249
	0.000112	97.600000	-0.079364	0.217521
	0.000560	97.700000	0.070348	0.217245
	0.000619	97.800000	-0.061333	0.216611
	0.000583	97.900000	0.044200	0.215266
	0.000184	98.000000	-0.027956	0.215552
	-6.426278E-6	98.100000	0.020754	0.215491
	0.000556	98.200000	-0.009901	0.216249
	0.000171	98.300000	0.002727	0.218035
	0.000540	98.400000	0.010847	0.217232
	0.000609	98.500000	-0.018865	0.213757
	0.000145	98.600000	0.036992	0.214958
	0.000142	98.700000	-0.043259	0.218126
	0.000125	98.800000	0.049631	0.216924
	0.000112	98.900000	-0.059522	0.216010
	9.392908E-5	99.000000	0.065891	0.217281
	8.570323E-5	99.100000	-0.082071	0.216558
	7.912255E-5	99.200000	0.089333	0.216350
	0.000344	99.300000	-0.082072	0.217722
	0.000158	99.400000	0.073990	0.214868
	0.000206	99.500000	-0.063102	0.216676
	0.000171	99.600000	0.054144	0.218240
	0.000168	99.700000	-0.045984	0.219524
	0.000128	99.800000	0.037911	0.216969
	0.000203	99.900000	-0.028864	0.217728

